{
  "titles": [
    {
      "title": "Relative spectral power distributions of high pressure discharge lamp illuminants"
    }
  ],
  "descriptions": [
    {
      "description": "Relative spectral power distributions of high pressure discharge lamp illuminants, wavelength range: 380 nm to 780 nm, wavelength increment: 5 nm, original source: CIE 015:2018 table 11",
      "descriptionType": "Abstract"
    }
  ],
  "identifier": {
    "identifier": "10.25039/CIE.DS.f6rvvnev",
    "identifierType": "DOI"
  },
  "creators": [
    {
      "name": "International Commission on Illumination (CIE)",
      "nameType": "Organizational"
    }
  ],
  "rightsList": [
    {
      "rights": "Creative Commons Attribution-ShareAlike 4.0 International",
      "rightsURI": "https://creativecommons.org/licenses/by-sa/4.0/",
      "rightsIdentifier": "CC BY-SA 4.0"
    }
  ],
  "publisher": "International Commission on Illumination (CIE), Vienna, AT",
  "publicationYear": "2018",
  "title": "HP2",
  "unit": "dimensionless",
  "quantity": "spectral distribution",
  "description": "Colour enhanced high pressure sodium lamp",
  "wavelength_first": 380,
  "wavelength_last": 780,
  "wavelength_step": 5,
  "data": {
    "lambda": {
      "title": "lambda",
      "unit": "nm",
      "quantity": "wavelength",
      "wavelength_first": 380,
      "wavelength_last": 780,
      "wavelength_step": 5,
      "values": [
        380,
        385,
        390,
        395,
        400,
        405,
        410,
        415,
        420,
        425,
        430,
        435,
        440,
        445,
        450,
        455,
        460,
        465,
        470,
        475,
        480,
        485,
        490,
        495,
        500,
        505,
        510,
        515,
        520,
        525,
        530,
        535,
        540,
        545,
        550,
        555,
        560,
        565,
        570,
        575,
        580,
        585,
        590,
        595,
        600,
        605,
        610,
        615,
        620,
        625,
        630,
        635,
        640,
        645,
        650,
        655,
        660,
        665,
        670,
        675,
        680,
        685,
        690,
        695,
        700,
        705,
        710,
        715,
        720,
        725,
        730,
        735,
        740,
        745,
        750,
        755,
        760,
        765,
        770,
        775,
        780
      ]
    },
    "HP2": {
      "title": "HP2",
      "unit": "dimensionless",
      "quantity": "spectral distribution",
      "description": "Colour enhanced high pressure sodium lamp",
      "wavelength_first": 380,
      "wavelength_last": 780,
      "wavelength_step": 5,
      "values": [
        2.64,
        2.77,
        3.42,
        3.68,
        4.33,
        5.5,
        5.94,
        7.2,
        9.02,
        10.27,
        12.48,
        16.82,
        16.04,
        15.26,
        22.58,
        20.07,
        15.13,
        25.27,
        28.04,
        15.99,
        10.4,
        11.1,
        13.44,
        22.62,
        49.71,
        17.21,
        17.12,
        27.26,
        20.02,
        21.54,
        23.36,
        25.66,
        29.69,
        43.12,
        98.3,
        125.6,
        134.57,
        149.7,
        166.12,
        98.77,
        30.47,
        1.17,
        0.39,
        1.65,
        21.41,
        76.11,
        126.16,
        161.96,
        160.06,
        158.19,
        153.69,
        147.4,
        140.6,
        134.92,
        127.59,
        124.65,
        118.02,
        113.94,
        118.1,
        115.16,
        102.85,
        90.54,
        83.34,
        79.44,
        76.97,
        74.85,
        73.12,
        71.51,
        70.13,
        69.04,
        67.48,
        66.7,
        66.31,
        65.14,
        65.7,
        64.79,
        64.1,
        83.04,
        86.25,
        63.93,
        64.92
      ]
    }
  }
}